 点号	频率 (Hz)	通道01(EU)                
段1 		
1	0	0.087503
2	0.05	0.016645
3	0.1	0.007825
4	0.15	0.007217
5	0.2	0.002441
6	0.25	0.00286
7	0.3	0.002763
8	0.35	0.002896
9	0.4	0.009351
10	0.45	0.002613
11	0.5	0.003939
12	0.55	0.001243
13	0.6	0.000114
14	0.65	0.001749
15	0.7	0.002503
16	0.75	0.000156
17	0.8	0.002025
18	0.85	0.000225
19	0.9	0.004932
20	0.95	0.00242
21	1	0.003837
22	1.05	0.001093
23	1.1	0.00088
24	1.15	0.001434
25	1.2	0.001545
26	1.25	0.002406
27	1.3	0.001992
28	1.35	0.001822
29	1.4	0.001568
30	1.45	0.000792
31	1.5	0.000752
32	1.55	0.000784
33	1.6	0.002512
34	1.65	0.000957
35	1.7	0.000223
36	1.75	0.000516
37	1.8	0.000196
38	1.85	0.00061
39	1.9	0.001063
40	1.95	0.000394
41	2	0.00169
42	2.05	0.001496
43	2.1	0.000255
44	2.15	0.000704
45	2.2	0.000972
46	2.25	0.000335
47	2.3	0.000948
48	2.35	0.002227
49	2.4	0.013112
50	2.45	0.00244
51	2.5	0.001439
52	2.55	0.001581
53	2.6	0.001123
54	2.65	0.002228
55	2.7	0.00244
56	2.75	0.001817
57	2.8	0.002841
58	2.85	0.003882
59	2.9	0.005253
60	2.95	0.002813
61	3	0.01136
62	3.05	0.011332
63	3.1	0.022008
64	3.15	0.003903
65	3.2	0.015936
66	3.25	0.009509
67	3.3	0.011035
68	3.35	0.006125
69	3.4	0.001952
70	3.45	0.004175
71	3.5	0.001829
72	3.55	0.006435
73	3.6	0.003359
74	3.65	0.012016
75	3.7	0.004577
76	3.75	0.011635
77	3.8	0.009675
78	3.85	0.01872
79	3.9	0.02438
80	3.95	0.02429
81	4	1.756725
82	4.05	0.003896
83	4.1	0.00694
84	4.15	0.002857
85	4.2	0.003585
86	4.25	0.004804
87	4.3	0.00293
88	4.35	0.002872
89	4.4	0.0085
90	4.45	0.002793
91	4.5	0.003096
92	4.55	0.001551
93	4.6	0.002151
94	4.65	0.00062
95	4.7	0.002135
96	4.75	0.000906
97	4.8	0.002822
98	4.85	0.001415
99	4.9	0.001357
100	4.95	0.001242
101	5	0.00047
102	5.05	0.000908
103	5.1	0.000353
104	5.15	0.000851
105	5.2	0.001151
106	5.25	0.00059
107	5.3	0.000685
108	5.35	0.000538
109	5.4	0.000566
110	5.45	0.00033
111	5.5	0.000971
112	5.55	0.000239
113	5.6	0.000597
114	5.65	0.00023
115	5.7	0.001193
116	5.75	0.001033
117	5.8	0.000607
118	5.85	0.00116
119	5.9	0.001216
120	5.95	0.000402
121	6	0.000225
122	6.05	0.000823
123	6.1	0.000576
124	6.15	0.000182
125	6.2	0.00048
126	6.25	0.000795
127	6.3	0.000147
128	6.35	0.000199
129	6.4	0.002215
130	6.45	0.001418
131	6.5	0.001982
132	6.55	0.001632
133	6.6	0.001036
134	6.65	0.001072
135	6.7	0.000997
136	6.75	0.000667
137	6.8	0.000875
138	6.85	0.001565
139	6.9	0.001749
140	6.95	0.000698
141	7	0.002407
142	7.05	0.000764
143	7.1	0.003944
144	7.15	0.001484
145	7.2	0.002485
146	7.25	0.002915
147	7.3	0.001225
148	7.35	0.001274
149	7.4	0.002539
150	7.45	0.001496
151	7.5	0.00135
152	7.55	0.005444
153	7.6	0.011007
154	7.65	0.001808
155	7.7	0.000555
156	7.75	0.003253
157	7.8	0.00349
158	7.85	0.003218
159	7.9	0.003096
160	7.95	0.007401
161	8	0.086057
162	8.05	0.005212
163	8.1	0.002385
164	8.15	0.003265
165	8.2	0.002674
166	8.25	0.006671
167	8.3	0.012568
168	8.35	0.02164
169	8.4	0.04693
170	8.45	0.015054
171	8.5	0.004749
172	8.55	0.008704
173	8.6	0.0046
174	8.65	0.001627
175	8.7	0.002558
176	8.75	0.003856
177	8.8	0.002121
178	8.85	0.000942
179	8.9	0.002417
180	8.95	0.002436
181	9	0.00246
182	9.05	0.000122
183	9.1	0.001246
184	9.15	0.002782
185	9.2	0.001864
186	9.25	0.001008
187	9.3	0.00098
188	9.35	0.000362
189	9.4	0.001015
190	9.45	0.000987
191	9.5	0.000456
192	9.55	0.000723
193	9.6	0.000583
194	9.65	0.000799
195	9.7	0.000543
196	9.75	0.000761
197	9.8	0.000142
198	9.85	0.000459
199	9.9	0.000288
200	9.95	0.000219
201	10	0.000612
202	10.05	0.000807
203	10.1	0.00026
204	10.15	0.000704
205	10.2	0.000628
206	10.25	0.000621
207	10.3	0.000357
208	10.35	0.000285
209	10.4	0.001206
210	10.45	0.000484
211	10.5	0.000334
212	10.55	0.000462
213	10.6	0.000826
214	10.65	0.000783
215	10.7	0.000302
216	10.75	0.000261
217	10.8	0.000895
218	10.85	0.000575
219	10.9	0.000135
220	10.95	0.000324
221	11	0.001072
222	11.05	0.001594
223	11.1	0.002598
224	11.15	0.000828
225	11.2	0.000775
226	11.25	0.001008
227	11.3	0.001207
228	11.35	0.000638
229	11.4	0.000983
230	11.45	0.000833
231	11.5	0.000633
232	11.55	0.000535
233	11.6	0.000182
234	11.65	0.00236
235	11.7	0.000305
236	11.75	0.00102
237	11.8	0.000547
238	11.85	0.001098
239	11.9	0.002005
240	11.95	0.002428
241	12	0.019058
242	12.05	0.003606
243	12.1	0.003084
244	12.15	0.003202
245	12.2	0.000902
246	12.25	0.003865
247	12.3	0.003144
248	12.35	0.0005
249	12.4	0.005724
250	12.45	0.001093
251	12.5	0.001798
252	12.55	0.000922
253	12.6	0.001414
254	12.65	0.00133
255	12.7	0.002145
256	12.75	0.001911
257	12.8	0.003238
258	12.85	0.000917
259	12.9	0.00085
260	12.95	0.001213
261	13	0.000238
262	13.05	0.000136
263	13.1	0.000679
264	13.15	0.000534
265	13.2	0.000884
266	13.25	0.000335
267	13.3	0.000778
268	13.35	0.000319
269	13.4	0.000484
270	13.45	0.000516
271	13.5	0.0001
272	13.55	0.000587
273	13.6	0.000401
274	13.65	0.000737
275	13.7	0.000183
276	13.75	0.000289
277	13.8	0.000442
278	13.85	0.000201
279	13.9	0.000133
280	13.95	0.000345
281	14	0.000428
282	14.05	0.000685
283	14.1	0.00034
284	14.15	0.000582
285	14.2	0.000597
286	14.25	0.000833
287	14.3	0.000425
288	14.35	0.000178
289	14.4	0.000129
290	14.45	0.000426
291	14.5	0.0006
292	14.55	0.0002
293	14.6	0.000585
294	14.65	0.000443
295	14.7	0.000603
296	14.75	0.000309
297	14.8	0.000161
298	14.85	0.000316
299	14.9	0.000346
300	14.95	0.000569
301	15	0.000223
302	15.05	0.000594
303	15.1	0.000725
304	15.15	0.000271
305	15.2	0.000213
306	15.25	0.000419
307	15.3	0.000554
308	15.35	0.000425
309	15.4	0.000658
310	15.45	0.00017
311	15.5	0.001158
312	15.55	0.002984
313	15.6	0.004109
314	15.65	0.002801
315	15.7	0.000437
316	15.75	0.001176
317	15.8	0.00127
318	15.85	0.000712
319	15.9	0.000912
320	15.95	0.00337
321	16	0.012718
322	16.05	0.002371
323	16.1	0.000336
324	16.15	0.000963
325	16.2	0.000417
326	16.25	0.000644
327	16.3	0.001324
328	16.35	0.002657
329	16.4	0.005373
330	16.45	0.003093
331	16.5	0.000961
332	16.55	0.0002
333	16.6	0.00069
334	16.65	0.002298
335	16.7	0.003232
336	16.75	0.004473
337	16.8	0.003892
338	16.85	0.002209
339	16.9	0.000934
340	16.95	0.000873
341	17	0.001386
342	17.05	0.000117
343	17.1	0.000583
344	17.15	0.000496
345	17.2	0.000403
346	17.25	0.00074
347	17.3	0.000835
348	17.35	0.000246
349	17.4	0.000369
350	17.45	0.000692
351	17.5	0.000065
352	17.55	0.00057
353	17.6	0.000499
354	17.65	0.000722
355	17.7	0.000609
356	17.75	0.000344
357	17.8	0.000157
358	17.85	0.000235
359	17.9	0.000213
360	17.95	0.000083
361	18	0.000412
362	18.05	0.000619
363	18.1	0.000635
364	18.15	0.000243
365	18.2	0.000188
366	18.25	0.000361
367	18.3	0.000408
368	18.35	0.000257
369	18.4	0.001092
370	18.45	0.00014
371	18.5	0.000089
372	18.55	0.000369
373	18.6	0.000505
374	18.65	0.000304
375	18.7	0.000554
376	18.75	0.000476
377	18.8	0.000361
378	18.85	0.000699
379	18.9	0.00045
380	18.95	0.000214
381	19	0.000133
382	19.05	0.000063
383	19.1	0.000117
384	19.15	0.000543
385	19.2	0.00063
386	19.25	0.000608
387	19.3	0.000491
388	19.35	0.00055
389	19.4	0.000635
390	19.45	0.000588
391	19.5	0.000181
392	19.55	0.001151
393	19.6	0.00036
394	19.65	0.003159
395	19.7	0.003021
396	19.75	0.001424
397	19.8	0.000895
398	19.85	0.001152
399	19.9	0.001777
400	19.95	0.000796
401	20	0.009231
402	20.05	0.002536
403	20.1	0.001605
404	20.15	0.000714
405	20.2	0.000804
406	20.25	0.000605
407	20.3	0.0006
408	20.35	0.001066
409	20.4	0.001487
410	20.45	0.000465
411	20.5	0.00078
412	20.55	0.000443
413	20.6	0.000979
414	20.65	0.000619
415	20.7	0.001312
416	20.75	0.001809
417	20.8	0.001103
418	20.85	0.000723
419	20.9	0.000478
420	20.95	0.000596
421	21	0.000439
422	21.05	0.000201
423	21.1	0.000461
424	21.15	0.000578
425	21.2	0.000345
426	21.25	0.000241
427	21.3	0.000451
428	21.35	0.000275
429	21.4	0.000066
430	21.45	0.00007
431	21.5	0.000148
432	21.55	0.000517
433	21.6	0.000185
434	21.65	0.000386
435	21.7	0.000433
436	21.75	0.000409
437	21.8	0.000101
438	21.85	0.000335
439	21.9	0.000369
440	21.95	0.000459
441	22	0.000144
442	22.05	0.000225
443	22.1	0.000289
444	22.15	0.000284
445	22.2	0.000272
446	22.25	0.000594
447	22.3	0.000307
448	22.35	0.00029
449	22.4	0.000117
450	22.45	0.000258
451	22.5	0.000353
452	22.55	0.000193
453	22.6	0.000214
454	22.65	0.000116
455	22.7	0.000277
456	22.75	0.000375
457	22.8	0.000432
458	22.85	0.000118
459	22.9	0.000435
460	22.95	0.000145
461	23	0.000508
462	23.05	0.000085
463	23.1	0.000154
464	23.15	0.000385
465	23.2	0.000472
466	23.25	0.00011
467	23.3	0.000348
468	23.35	0.000086
469	23.4	0.000348
470	23.45	0.000168
471	23.5	0.000199
472	23.55	0.000279
473	23.6	0.000994
474	23.65	0.000359
475	23.7	0.000483
476	23.75	0.000263
477	23.8	0.000268
478	23.85	0.00029
479	23.9	0.000885
480	23.95	0.000854
481	24	0.002355
482	24.05	0.000874
483	24.1	0.000448
484	24.15	0.000597
485	24.2	0.000594
486	24.25	0.000646
487	24.3	0.001386
488	24.35	0.001727
489	24.4	0.003282
490	24.45	0.000701
491	24.5	0.000627
492	24.55	0.000748
493	24.6	0.000301
494	24.65	0.000277
495	24.7	0.000131
496	24.75	0.000306
497	24.8	0.000374
498	24.85	0.000396
499	24.9	0.000127
500	24.95	0.000129
501	25	0.000143
502	25.05	0.000468
503	25.1	0.00026
504	25.15	0.000597
505	25.2	0.000506
506	25.25	0.000506
507	25.3	0.000205
508	25.35	0.000167
509	25.4	0.000253
510	25.45	0.000045
511	25.5	0.000319
512	25.55	0.000108
513	25.6	0.000149
